##########################################################################################
### CosmicWatch: The Desktop Muon Detector
### Questions? saxani@mit.edu
### Comp_date Comp_time Event Ardn_time[ms] ADC[0-1023] SiPM[mV] Deadtime[ms] Temp[C] Name
##########################################################################################
Device ID: Goblin
1 761 345 64.98 0 22.51
2 901 204 34.73 15 22.51
3 1660 304 53.73 33 22.51
4 1703 368 72.93 52 22.51
5 2270 195 33.17 71 22.51
6 2401 112 22.94 90 22.51
7 2821 188 32.01 114 22.51
8 4069 195 33.17 133 22.51
9 4522 101 22.08 152 22.62
10 4621 60 17.43 171 22.51
11 4685 184 31.36 190 22.51
12 4904 255 43.96 209 22.51
13 6570 176 30.09 232 22.51
14 7102 384 80.08 252 22.51
15 7236 401 87.91 271 22.51
16 7275 184 31.36 290 22.51
17 7473 287 50.23 309 22.51
18 10703 124 23.92 328 22.51
19 10760 518 151.06 347 22.51
20 10877 96 21.67 366 22.51
21 11594 291 50.97 385 22.51
22 13153 70 18.93 404 22.51
23 13953 384 80.08 423 22.51
24 13987 371 73.82 442 22.51
25 14370 156 27.28 465 22.62
26 14925 207 35.26 484 22.51
27 15645 126 24.09 503 22.51
28 16550 195 33.17 522 22.51
29 17038 419 97.20 541 22.51
30 17467 275 47.73 560 22.51
31 17611 56 16.76 579 22.51
32 17768 255 43.96 598 22.51
33 18188 216 36.85 617 22.51
34 18426 60 17.43 636 22.51
35 18730 167 28.76 655 22.51
36 19202 270 46.71 674 22.51
37 19372 313 56.02 693 22.51
38 19818 124 23.92 712 22.51
39 19966 711 380.66 731 22.51
40 21317 281 48.90 750 22.51
41 21982 62 17.75 773 22.51
42 22041 359 69.86 798 22.51
43 22528 478 129.43 817 22.51
44 22895 163 28.20 836 22.51
45 22927 384 80.08 855 22.51
46 23559 97 21.75 874 22.62
47 23801 204 34.73 893 22.62
48 24709 92 21.32 912 22.51
49 25545 88 20.96 931 22.51
50 25714 56 16.76 950 22.51
51 26114 185 31.51 969 22.51
52 26454 57 16.93 988 22.51
53 26546 89 21.05 1007 22.51
54 26628 71 19.06 1026 22.62
55 27475 316 56.81 1045 22.62
56 28725 480 130.21 1064 22.51
57 28754 60 17.43 1083 22.62
58 28911 76 19.69 1102 22.51
59 29011 216 36.85 1127 22.51
60 30127 120 23.58 1146 22.62
61 32497 177 30.25 1165 22.62
62 32524 78 19.92 1184 22.51
63 32711 192 32.67 1203 22.83
64 33893 366 72.41 1222 22.51
65 34600 88 20.96 1241 22.62
66 34895 435 104.92 1260 22.62
67 35417 156 27.28 1279 22.62
68 36143 71 19.06 1298 22.62
69 36581 63 17.91 1323 22.51
70 36991 432 101.61 1343 22.72
71 37149 318 57.28 1362 22.62
72 37477 63 17.91 1381 22.62
73 38500 255 43.96 1400 22.62
74 39165 153 26.90 1419 22.62
75 39206 451 113.08 1443 22.51
76 40099 56 16.76 1462 22.62
77 40212 216 36.85 1481 22.62
78 40373 167 28.76 1500 22.62
79 40406 387 81.05 1519 22.62
80 40674 209 35.61 1538 22.62
81 41049 83 20.46 1557 22.62
82 41373 216 36.85 1576 22.62
83 41995 184 31.36 1595 22.62
84 42517 335 61.77 1614 22.62
85 42540 220 37.58 1633 22.62
86 43162 376 76.43 1652 22.62
87 43432 110 22.78 1672 22.62
88 43514 211 35.96 1691 22.62
89 44056 99 21.91 1710 22.72
90 45387 238 40.82 1729 22.62
91 45471 127 24.18 1748 22.72
92 45703 99 21.91 1772 22.62
93 45820 153 26.90 1792 22.62
94 45892 240 41.21 1811 22.62
95 47195 127 24.18 1830 22.62
96 47609 156 27.28 1853 22.62
97 47855 63 17.91 1872 22.72
98 48155 121 23.66 1892 22.62
99 49219 63 17.91 1911 22.62
100 50623 51 15.86 1930 22.72
101 52290 63 17.91 1949 22.83
102 52370 496 144.49 1968 22.51
103 52423 57 16.93 1988 22.94
104 52538 76 19.69 2007 22.83
105 52746 231 39.55 2026 22.83
106 53695 67 18.51 2045 22.83
107 53815 414 93.93 2064 22.62
108 54121 88 20.96 2088 22.83
109 54657 56 16.76 2107 22.72
110 54893 448 112.41 2126 22.83
111 55027 419 97.20 2145 22.72
112 55090 252 43.42 2164 22.94
113 55414 226 38.63 2183 22.72
114 55995 335 61.77 2202 22.62
115 56124 728 431.28 2221 22.62
116 56944 291 50.97 2240 22.83
117 57063 307 54.48 2259 22.83
118 57256 255 43.96 2278 22.94
119 57455 268 46.26 2297 22.94
120 57945 185 31.51 2316 22.72
121 58586 444 109.09 2335 22.83
122 59417 56 16.76 2354 23.05
123 59752 455 117.03 2373 22.83
124 59838 224 38.29 2399 22.72
125 60088 62 17.75 2418 22.83
126 60219 185 31.51 2437 22.72
127 61657 96 21.67 2456 22.83
128 61891 547 162.22 2475 22.83
129 62411 248 42.69 2496 22.94
130 63692 115 23.18 2515 22.94
131 64001 440 109.25 2534 22.83
132 64649 377 76.28 2553 23.05
133 65130 551 164.56 2572 22.83
134 65514 159 27.66 2591 22.94
135 65547 376 76.43 2610 22.83
136 65689 135 24.92 2629 22.94
137 67350 440 109.25 2648 22.83
138 67892 88 20.96 2667 22.83
139 68663 319 57.64 2686 22.94
140 70349 152 26.78 2710 22.94
141 70573 172 29.49 2729 22.94
142 70805 113 23.02 2748 22.94
143 71531 370 73.62 2767 22.94
144 72109 103 22.23 2788 22.94
145 72312 448 112.41 2807 22.94
146 72702 243 41.74 2826 23.05
147 73005 165 28.48 2845 22.94
148 73204 359 69.86 2864 22.83
149 73920 153 26.90 2883 23.05
150 75485 67 18.51 2902 23.05
151 76393 108 22.63 2921 23.05
152 76845 451 113.08 2944 23.05
153 77216 108 22.63 2963 23.05
154 77834 83 20.46 2982 22.83
155 79475 216 36.85 3001 22.94
156 80015 204 34.73 3025 22.94
157 80674 226 38.63 3044 23.05
158 80964 71 19.06 3063 23.05
159 82373 216 36.85 3083 23.05
160 82470 243 41.74 3102 23.05
161 82533 435 104.92 3121 22.94
162 82660 287 50.23 3140 23.15
163 83095 280 48.67 3159 22.94
164 83247 167 28.76 3178 22.94
165 83696 67 18.51 3197 22.94
166 84390 476 129.76 3216 22.83
167 85225 192 32.67 3236 22.94
168 86483 108 22.63 3255 23.05
169 86798 287 50.23 3274 22.94
170 89215 113 23.02 3293 22.94
171 89520 124 23.92 3313 23.05
172 89560 345 64.98 3338 23.15
173 90162 81 20.25 3357 23.15
174 90359 391 82.35 3376 22.94
175 91415 291 50.97 3395 23.15
176 92228 120 23.58 3414 22.94
177 92564 71 19.06 3433 23.05
178 93020 480 130.21 3452 23.15
179 93449 199 33.86 3471 23.05
180 93842 487 132.65 3496 23.05
181 93983 412 92.93 3515 23.05
182 94559 71 19.06 3534 23.05
183 95247 51 15.86 3553 23.05
184 95436 335 61.77 3572 23.05
185 96091 243 41.74 3591 23.05
186 96470 177 30.25 3611 23.05
187 96531 57 16.93 3630 23.15
188 96563 51 15.86 3649 23.15
189 97498 88 20.96 3664 23.15
190 99293 78 19.92 3696 23.05
191 99498 206 35.07 3715 23.15
192 99547 227 38.83 3734 23.05
193 99842 248 42.69 3753 23.15
194 99876 103 22.23 3772 23.15
195 100992 195 33.17 3791 23.15
196 101020 79 20.03 3810 23.15
197 101610 248 42.69 3829 23.15
198 102108 96 21.67 3849 23.15
199 102767 531 160.62 3868 23.15
200 103212 254 43.77 3888 23.15
201 103889 425 99.48 3907 23.15
202 103943 99 21.91 3926 23.05
203 106173 435 104.92 3945 23.15
204 106554 62 17.75 3968 23.15
205 106592 195 33.17 3987 23.05
206 108349 195 33.17 4006 23.15
207 109236 448 112.41 4025 23.15
208 109768 63 17.91 4047 23.15
209 110346 393 83.55 4066 23.15
210 110669 67 18.51 4085 23.15
211 111476 96 21.67 4105 23.15
212 112075 56 16.76 4124 23.15
213 112897 192 32.67 4143 23.15
214 113389 243 41.74 4162 23.15
215 113866 56 16.76 4182 23.05
216 115358 326 59.13 4201 23.15
217 115949 655 252.34 4220 23.05
218 116701 220 37.58 4239 23.15
219 116785 425 99.48 4258 23.15
220 116874 60 17.43 4281 23.15
221 117338 127 24.18 4301 23.15
222 117437 204 34.73 4320 23.15
223 119232 270 46.71 4339 23.15
224 119550 89 21.05 4359 23.15
225 120131 216 36.85 4378 23.15
226 120341 63 17.91 4397 23.15
227 120650 127 24.18 4416 23.15
228 121007 389 81.58 4435 23.05
229 121720 56 16.76 4454 23.15
230 121991 167 28.76 4473 23.15
231 123799 585 189.11 4492 23.15
232 123914 408 90.57 4511 23.15
233 124174 49 15.48 4530 23.15
234 124261 63 17.91 4549 23.15
235 124753 176 30.09 4569 23.15
236 125015 408 90.57 4597 23.15
237 125437 103 22.23 4616 23.15
238 125663 280 48.67 4635 23.15
239 126378 71 19.06 4654 23.15
240 127174 66 18.36 4673 23.15
241 127461 216 36.85 4692 23.15
242 129426 440 109.25 4711 23.15
243 130739 76 19.69 4730 23.15
244 130947 412 92.93 4749 23.15
245 131575 83 20.46 4768 23.15
246 132236 316 56.81 4787 23.15
247 132811 112 22.94 4806 23.15
248 132980 184 31.36 4825 23.15
249 133099 63 17.91 4844 23.15
250 133224 120 23.58 4863 23.15
251 133476 210 35.78 4885 23.15
252 135841 174 29.79 4904 23.15
253 136947 156 27.28 4923 23.15
254 137355 387 81.05 4942 23.15
255 137444 79 20.03 4961 23.15
256 138532 399 87.30 4980 23.15
257 139019 376 76.43 4999 23.15
258 139378 419 97.20 5018 23.15
259 139637 63 17.91 5037 23.15
260 140078 56 16.76 5057 23.15
261 140809 56 16.76 5076 23.15
262 142162 508 144.95 5095 23.15
263 143089 248 42.69 5114 23.15
264 143720 204 34.73 5138 23.15
265 144534 419 97.20 5157 23.15
266 145288 329 59.91 5178 23.15
267 146650 492 134.92 5202 23.15
268 147444 199 33.86 5221 23.15
269 148257 56 16.76 5240 23.15
270 148362 62 17.75 5259 23.15
271 148588 184 31.36 5280 23.15
272 149902 216 36.85 5299 23.15
273 150519 262 45.24 5318 23.15
274 151354 376 76.43 5337 23.15
275 151663 67 18.51 5356 23.15
276 152364 51 15.86 5376 23.15
277 152940 71 19.06 5395 23.15
278 153000 71 19.06 5414 23.15
279 153265 300 52.79 5433 23.15
280 153463 195 33.17 5452 23.15
281 154351 97 21.75 5471 23.15
282 155438 543 164.77 5490 23.15
283 156076 60 17.43 5514 23.15
284 156409 88 20.96 5533 23.15
285 156521 423 97.36 5552 23.15
286 157140 172 29.49 5571 23.15
287 157196 56 16.76 5591 23.15
288 159027 312 55.68 5610 23.15
289 159090 66 18.36 5629 23.15
290 159892 60 17.43 5648 23.15
291 161482 415 95.00 5672 23.15
292 162164 167 28.76 5691 23.15
293 162306 135 24.92 5710 23.15
294 163599 103 22.23 5730 23.15
295 163843 131 24.54 5749 23.15
296 164109 385 80.11 5769 23.15
297 164857 224 38.29 5788 23.15
298 165118 56 16.76 5812 23.15
299 166433 56 16.76 5832 23.15
300 166940 252 43.42 5851 23.15
301 167284 353 67.64 5870 23.15
302 167759 110 22.78 5889 23.15
303 167814 57 16.93 5908 23.15
304 168366 56 16.76 5927 23.15
305 169016 127 24.18 5946 23.15
306 170256 216 36.85 5965 23.15
307 170470 79 20.03 5984 23.15
308 171983 348 65.64 6003 23.15
309 172402 147 26.19 6022 23.15
310 172699 553 176.67 6041 23.15
311 173009 92 21.32 6060 23.15
312 173999 185 31.51 6079 23.15
313 175090 83 20.46 6098 23.15
314 175469 108 22.63 6123 23.15
315 175796 76 19.69 6143 23.15
316 176222 79 20.03 6162 23.15
317 176496 454 115.28 6181 23.15
318 176985 57 16.93 6200 23.15
319 177414 82 20.36 6225 23.15
320 177643 398 85.63 6245 23.15
321 177871 60 17.43 6264 23.15
322 177902 440 109.25 6284 23.15
323 178732 335 61.77 6303 23.15
324 179646 435 104.92 6322 23.15
325 180717 99 21.91 6341 23.15
326 180755 408 90.57 6360 23.15
327 181194 430 101.41 6379 23.15
328 181436 304 53.73 6398 23.15
329 181474 455 117.03 6417 23.15
330 182177 78 19.92 6433 23.15
331 182464 280 48.67 6452 23.15
332 183970 440 109.25 6472 23.15
333 186162 71 19.06 6491 23.15
334 186440 49 15.48 6510 23.15
335 186592 335 61.77 6529 23.15
336 187138 56 16.76 6548 23.15
337 187492 295 51.75 6567 23.15
338 187590 280 48.67 6587 23.15
339 187615 444 109.09 6607 23.15
340 187974 73 19.32 6626 23.15
341 188307 428 101.58 6645 23.15
342 189109 199 33.86 6664 23.15
343 189580 127 24.18 6683 23.15
344 190225 318 57.28 6702 23.15
345 191438 147 26.19 6725 23.15
346 191618 230 39.39 6745 23.15
347 191907 192 32.67 6769 23.15
348 192744 632 232.56 6788 23.15
349 194507 51 15.86 6807 23.15
350 194913 453 113.81 6826 23.15
351 195415 632 232.56 6845 23.15
352 195648 453 113.81 6864 23.15
353 196373 51 15.86 6883 23.15
354 196436 158 27.53 6902 23.15
355 197244 51 15.86 6921 23.15
356 197723 355 68.30 6940 23.15
357 197951 63 17.91 6959 23.15
358 198213 135 24.92 6978 23.15
359 198342 70 18.93 6997 23.15
360 198528 135 24.92 7016 23.15
361 198825 60 17.43 7040 23.15
362 199862 147 26.19 7059 23.15
363 199964 82 20.36 7078 23.15
364 200041 364 71.71 7097 23.15
365 200463 295 51.75 7116 23.15
366 202530 207 35.26 7135 23.15
367 202715 263 45.37 7154 23.15
368 203823 96 21.67 7173 23.15
369 204156 345 64.98 7192 23.15
370 204270 121 23.66 7211 23.15
371 204321 254 43.77 7230 23.15
372 204910 204 34.73 7249 23.15
373 204942 220 37.58 7268 23.15
374 206191 249 42.85 7287 23.15
375 206458 441 109.77 7312 23.15
376 206754 441 109.77 7334 23.15
377 206828 519 154.30 7353 23.15
378 208009 153 26.90 7372 23.15
379 208610 240 41.21 7391 23.15
380 208678 396 85.28 7410 23.15
381 209378 83 20.46 7429 23.15
382 209665 270 46.71 7448 23.15
383 210119 176 30.09 7467 23.15
384 211087 63 17.91 7486 23.15
385 211217 96 21.67 7506 23.15
386 212858 287 50.23 7525 23.15
387 212882 79 20.03 7544 23.15
388 212917 184 31.36 7563 23.15
389 213122 197 33.52 7582 23.15
390 213442 174 29.79 7601 23.15
391 213752 62 17.75 7620 23.15
392 214132 89 21.05 7644 23.15
393 214164 76 19.69 7663 23.15
394 214493 60 17.43 7682 23.15
395 214797 231 39.55 7702 23.15
396 215394 82 20.36 7721 23.15
397 215755 67 18.51 7740 23.15
398 216014 231 39.55 7760 23.15
399 217007 291 50.97 7779 23.15
400 217590 67 18.51 7799 23.15
401 219903 252 43.42 7818 23.15
402 219983 73 19.32 7838 23.15
403 220073 300 52.79 7862 23.15
404 220469 79 20.03 7881 23.15
405 221822 273 47.25 7900 23.15
406 221900 414 93.93 7919 23.15
407 221997 207 35.26 7938 23.15
408 222375 355 68.30 7962 23.15
409 223142 220 37.58 7981 23.15
410 223499 147 26.19 8000 23.15
411 223557 56 16.76 8019 23.15
412 223680 399 87.30 8038 23.15
413 225575 145 25.96 8057 23.15
414 226017 280 48.67 8076 23.15
415 226255 76 19.69 8095 23.15
416 226943 316 56.81 8114 23.15
417 227460 515 147.53 8133 23.15
418 227620 67 18.51 8152 23.15
419 227658 140 25.42 8171 23.15
420 228806 255 43.96 8190 23.15
421 228966 553 176.67 8209 23.15
422 229117 300 52.79 8228 23.15
423 230204 57 16.93 8253 23.15
424 230464 71 19.06 8272 23.15
425 230488 369 73.42 8293 23.15
426 230551 497 142.37 8308 23.15
427 231267 249 42.85 8327 23.15
428 231499 222 37.96 8346 23.15
429 231628 172 29.49 8365 23.15
430 231909 262 45.24 8388 23.15
431 232208 627 249.17 8408 23.15
432 232627 71 19.06 8427 23.15
433 232815 92 21.32 8446 23.15
434 232837 66 18.36 8465 23.15
435 232977 553 176.67 8485 23.15
436 233176 366 72.41 8505 23.15
437 233482 163 28.20 8524 23.15
438 233616 435 104.92 8543 23.15
439 233805 79 20.03 8566 23.15
440 234009 419 97.20 8585 23.15
441 234250 344 64.67 8604 23.15
442 235449 332 61.17 8623 23.15
443 235814 286 49.78 8642 23.15
444 236048 252 43.42 8661 23.15
445 236383 327 59.28 8680 23.15
446 237108 428 101.58 8699 23.15
447 237464 184 31.36 8718 23.15
448 237696 163 28.20 8737 23.15
449 239139 371 73.82 8756 23.15
450 239540 67 18.51 8775 23.15
451 239856 280 48.67 8795 23.15
452 240230 78 19.92 8815 23.15
453 240715 76 19.69 8834 23.15
454 240782 76 19.69 8857 23.15
455 241364 441 109.77 8876 23.15
456 241955 184 31.36 8895 23.15
457 242166 88 20.96 8914 23.15
458 243754 561 174.17 8939 23.15
459 244136 101 22.08 8960 23.15
460 244323 344 64.67 8979 23.15
461 244505 255 43.96 8998 23.15
462 245845 124 23.92 9017 23.15
463 247509 172 29.49 9036 23.15
464 248028 62 17.75 9055 23.15
465 248218 156 27.28 9074 23.15
466 248298 463 119.23 9093 23.15
467 248389 96 21.67 9112 23.15
468 248778 263 45.37 9131 23.15
469 249473 199 33.86 9150 23.15
470 249656 227 38.83 9174 23.15
471 250150 231 39.55 9193 23.15
472 251541 423 97.36 9212 23.15
473 251739 71 19.06 9231 23.15
474 251850 147 26.19 9252 23.15
475 252379 448 112.41 9271 23.15
476 252982 609 211.41 9290 23.15
477 253354 153 26.90 9309 23.15
478 253375 440 109.25 9328 23.15
479 253767 81 20.25 9347 23.15
480 254279 435 104.92 9366 23.15
481 254794 120 23.58 9385 23.15
482 255647 352 66.89 9405 23.15
483 257161 56 16.76 9424 23.15
484 257621 569 185.56 9443 23.15
485 258715 167 28.76 9471 23.15
486 259369 211 35.96 9490 23.15
487 259590 115 23.18 9509 23.15
488 260031 143 25.74 9528 23.15
489 261261 254 43.77 9547 23.15
490 261317 103 22.23 9566 23.15
491 261890 56 16.76 9585 23.15
492 262037 115 23.18 9604 23.15
493 263076 284 49.41 9623 23.15
